# pressure[GPa]	radius[R_earth] temperature[K] density[g/cc]
1.0000E-04	3.979310	  76.0	4.4876E-04
1.1319E-04	3.978813	  77.9	4.9532E-04
1.2774E-04	3.978316	  79.9	5.4527E-04
1.4373E-04	3.977818	  81.8	5.9840E-04
1.6126E-04	3.977321	  83.8	6.5498E-04
1.8042E-04	3.976823	  85.7	7.1500E-04
2.0132E-04	3.976326	  87.8	7.7872E-04
2.2407E-04	3.975828	  89.8	8.4601E-04
2.4874E-04	3.975331	  91.9	9.1668E-04
3.0434E-04	3.974336	  96.3	1.0696E-03
3.6895E-04	3.973341	 100.8	1.2377E-03
4.4345E-04	3.972347	 105.4	1.4202E-03
5.2866E-04	3.971352	 110.1	1.6181E-03
6.2539E-04	3.970357	 115.0	1.8293E-03
7.3447E-04	3.969362	 120.0	2.0554E-03
8.5669E-04	3.968367	 125.1	2.2951E-03
9.9286E-04	3.967372	 130.4	2.5491E-03
1.1437E-03	3.966378	 135.8	2.8140E-03
1.3099E-03	3.965383	 141.4	3.0901E-03
1.4920E-03	3.964388	 147.1	3.3782E-03
1.6907E-03	3.963393	 153.0	3.6745E-03
1.9066E-03	3.962398	 158.9	3.9824E-03
2.1401E-03	3.961403	 165.0	4.2971E-03
2.3918E-03	3.960409	 171.1	4.6205E-03
2.6621E-03	3.959414	 177.4	4.9510E-03
3.9374E-03	3.955434	 201.9	6.3767E-03
5.5714E-03	3.951455	 224.3	8.0845E-03
7.6186E-03	3.947476	 245.8	9.9714E-03
1.0115E-02	3.943497	 268.5	1.1988E-02
1.3086E-02	3.939517	 291.8	1.4076E-02
1.6556E-02	3.935538	 314.3	1.6343E-02
2.0575E-02	3.931559	 335.7	1.8775E-02
2.5172E-02	3.927579	 356.1	2.1303E-02
3.0369E-02	3.923600	 375.9	2.3916E-02
3.6185E-02	3.919621	 395.2	2.6557E-02
4.2629E-02	3.915641	 414.1	2.9322E-02
4.9746E-02	3.911662	 432.5	3.2169E-02
5.7531E-02	3.907683	 450.6	3.4991E-02
6.5992E-02	3.903703	 468.4	3.7868E-02
7.5141E-02	3.899724	 485.8	4.0747E-02
8.4983E-02	3.895745	 503.1	4.3664E-02
9.5530E-02	3.891766	 520.2	4.6589E-02
1.0678E-01	3.887786	 537.2	4.9470E-02
1.1872E-01	3.883807	 553.9	5.2300E-02
1.3135E-01	3.879828	 570.3	5.5124E-02
1.4467E-01	3.875848	 586.4	5.7983E-02
1.5870E-01	3.871869	 602.1	6.0862E-02
1.7341E-01	3.867890	 617.2	6.3526E-02
1.8878E-01	3.863910	 631.8	6.6188E-02
2.0481E-01	3.859931	 645.9	6.8843E-02
2.2150E-01	3.855952	 659.6	7.1494E-02
2.3886E-01	3.851972	 673.0	7.4144E-02
2.5688E-01	3.847993	 686.2	7.6724E-02
2.7554E-01	3.844014	 699.3	7.9254E-02
2.9484E-01	3.840034	 712.4	8.1777E-02
3.1479E-01	3.836055	 725.5	8.4292E-02
3.3538E-01	3.832076	 738.8	8.6782E-02
3.5660E-01	3.828097	 752.2	8.9238E-02
3.7846E-01	3.824117	 765.7	9.1685E-02
4.0095E-01	3.820138	 779.4	9.4118E-02
4.2408E-01	3.816159	 793.0	9.6549E-02
4.4784E-01	3.812179	 806.6	9.9002E-02
4.7224E-01	3.808200	 820.2	1.0145E-01
4.9729E-01	3.804221	 833.6	1.0389E-01
5.2298E-01	3.800241	 846.8	1.0633E-01
5.4932E-01	3.796262	 859.7	1.0873E-01
5.7629E-01	3.792283	 872.5	1.1112E-01
6.0390E-01	3.788303	 884.9	1.1351E-01
6.3215E-01	3.784324	 896.9	1.1589E-01
6.6102E-01	3.780345	 908.7	1.1803E-01
6.9046E-01	3.776366	 920.0	1.2004E-01
7.2044E-01	3.772386	 930.9	1.2201E-01
7.5096E-01	3.768407	 941.6	1.2396E-01
7.8202E-01	3.764428	 951.9	1.2590E-01
8.1363E-01	3.760448	 961.9	1.2782E-01
8.4577E-01	3.756469	 971.7	1.2973E-01
8.7846E-01	3.752490	 981.2	1.3176E-01
9.1174E-01	3.748510	 990.5	1.3384E-01
9.4559E-01	3.744531	 999.6	1.3588E-01
9.8002E-01	3.740552	1008.6	1.3791E-01
1.0150E+00	3.736572	1017.4	1.3993E-01
1.0506E+00	3.732593	1026.1	1.4195E-01
1.0868E+00	3.728614	1034.6	1.4395E-01
1.1235E+00	3.724634	1043.1	1.4595E-01
1.1608E+00	3.720655	1051.4	1.4795E-01
1.1987E+00	3.716676	1059.6	1.4996E-01
1.2372E+00	3.712697	1067.8	1.5195E-01
1.2762E+00	3.708717	1075.9	1.5395E-01
1.3158E+00	3.704738	1083.9	1.5589E-01
1.3560E+00	3.700759	1091.9	1.5772E-01
1.3967E+00	3.696779	1099.8	1.5955E-01
1.4380E+00	3.692800	1107.7	1.6138E-01
1.4798E+00	3.688821	1115.5	1.6320E-01
1.5222E+00	3.684841	1123.3	1.6502E-01
1.5651E+00	3.680862	1131.0	1.6682E-01
1.6086E+00	3.676883	1138.7	1.6862E-01
1.6526E+00	3.672903	1146.4	1.7042E-01
1.6972E+00	3.668924	1154.0	1.7221E-01
1.7423E+00	3.664945	1161.7	1.7399E-01
1.7880E+00	3.660966	1169.3	1.7577E-01
1.8342E+00	3.656986	1176.9	1.7754E-01
1.8809E+00	3.653007	1184.5	1.7931E-01
1.9282E+00	3.649028	1192.1	1.8107E-01
1.9761E+00	3.645048	1199.8	1.8283E-01
2.0245E+00	3.641069	1207.4	1.8457E-01
2.0735E+00	3.637090	1215.0	1.8631E-01
2.1230E+00	3.633110	1222.6	1.8804E-01
2.1730E+00	3.629131	1230.2	1.8977E-01
2.2237E+00	3.625152	1237.9	1.9149E-01
2.2748E+00	3.621172	1245.5	1.9321E-01
2.3265E+00	3.617193	1253.2	1.9491E-01
2.3788E+00	3.613214	1260.9	1.9653E-01
2.4316E+00	3.609234	1268.6	1.9816E-01
2.4849E+00	3.605255	1276.3	1.9979E-01
2.5388E+00	3.601276	1284.1	2.0140E-01
2.5931E+00	3.597297	1291.8	2.0301E-01
2.6481E+00	3.593317	1299.6	2.0462E-01
2.7035E+00	3.589338	1307.4	2.0622E-01
2.7595E+00	3.585359	1315.2	2.0782E-01
2.8161E+00	3.581379	1323.0	2.0942E-01
2.8731E+00	3.577400	1330.9	2.1102E-01
2.9307E+00	3.573421	1338.8	2.1262E-01
2.9889E+00	3.569441	1346.6	2.1421E-01
3.0476E+00	3.565462	1354.6	2.1580E-01
3.1068E+00	3.561483	1362.5	2.1738E-01
3.1666E+00	3.557503	1370.5	2.1896E-01
3.2269E+00	3.553524	1378.4	2.2054E-01
3.2878E+00	3.549545	1386.4	2.2213E-01
3.3492E+00	3.545566	1394.5	2.2372E-01
3.4112E+00	3.541586	1402.5	2.2531E-01
3.4737E+00	3.537607	1410.6	2.2689E-01
3.5368E+00	3.533628	1418.7	2.2847E-01
3.6005E+00	3.529648	1426.8	2.3005E-01
3.6647E+00	3.525669	1435.0	2.3162E-01
3.7294E+00	3.521690	1443.1	2.3319E-01
3.7947E+00	3.517710	1451.3	2.3476E-01
3.8606E+00	3.513731	1459.6	2.3632E-01
3.9270E+00	3.509752	1467.8	2.3787E-01
3.9940E+00	3.505772	1476.1	2.3943E-01
4.0616E+00	3.501793	1484.4	2.4098E-01
4.1297E+00	3.497814	1492.8	2.4253E-01
4.1984E+00	3.493834	1501.2	2.4407E-01
4.2676E+00	3.489855	1509.5	2.4558E-01
4.3374E+00	3.485876	1518.0	2.4712E-01
4.4078E+00	3.481897	1526.4	2.4866E-01
4.4787E+00	3.477917	1534.9	2.5019E-01
4.5502E+00	3.473938	1543.4	2.5172E-01
4.6223E+00	3.469959	1551.9	2.5325E-01
4.6949E+00	3.465979	1560.5	2.5477E-01
4.7681E+00	3.462000	1569.0	2.5629E-01
4.8419E+00	3.458021	1577.6	2.5781E-01
4.9163E+00	3.454041	1586.2	2.5933E-01
4.9912E+00	3.450062	1594.8	2.6085E-01
5.0667E+00	3.446083	1603.4	2.6237E-01
5.1428E+00	3.442103	1612.0	2.6388E-01
5.2195E+00	3.438124	1620.6	2.6540E-01
5.2967E+00	3.434145	1629.2	2.6691E-01
5.3746E+00	3.430166	1637.8	2.6842E-01
5.4530E+00	3.426186	1646.4	2.6992E-01
5.5320E+00	3.422207	1655.1	2.7143E-01
5.6116E+00	3.418228	1663.7	2.7294E-01
5.6918E+00	3.414248	1672.3	2.7445E-01
5.7726E+00	3.410269	1680.9	2.7596E-01
5.8540E+00	3.406290	1689.5	2.7746E-01
5.9359E+00	3.402310	1698.1	2.7897E-01
6.0185E+00	3.398331	1706.7	2.8047E-01
6.1017E+00	3.394352	1715.3	2.8197E-01
6.1854E+00	3.390372	1723.8	2.8347E-01
6.2698E+00	3.386393	1732.4	2.8497E-01
6.3548E+00	3.382414	1740.9	2.8648E-01
6.4404E+00	3.378434	1749.4	2.8800E-01
6.5266E+00	3.374455	1757.9	2.8953E-01
6.6134E+00	3.370476	1766.4	2.9105E-01
6.7009E+00	3.366497	1774.9	2.9257E-01
6.7889E+00	3.362517	1783.3	2.9409E-01
6.8776E+00	3.358538	1791.7	2.9561E-01
6.9669E+00	3.354559	1800.1	2.9713E-01
7.0569E+00	3.350579	1808.5	2.9864E-01
7.1475E+00	3.346600	1816.9	3.0016E-01
7.2387E+00	3.342621	1825.2	3.0168E-01
7.3305E+00	3.338641	1833.5	3.0320E-01
7.4230E+00	3.334662	1841.8	3.0472E-01
7.5161E+00	3.330683	1850.0	3.0623E-01
7.6098E+00	3.326703	1858.2	3.0775E-01
7.7042E+00	3.322724	1866.4	3.0927E-01
7.7992E+00	3.318745	1874.5	3.1078E-01
7.8949E+00	3.314766	1882.7	3.1230E-01
7.9912E+00	3.310786	1890.7	3.1381E-01
8.0882E+00	3.306807	1898.8	3.1532E-01
8.1858E+00	3.302828	1906.8	3.1683E-01
8.2841E+00	3.298848	1914.8	3.1833E-01
8.3830E+00	3.294869	1922.7	3.1984E-01
8.4826E+00	3.290890	1930.6	3.2134E-01
8.5829E+00	3.286910	1938.5	3.2284E-01
8.6838E+00	3.282931	1946.4	3.2434E-01
8.7853E+00	3.278952	1954.2	3.2584E-01
8.8876E+00	3.274972	1962.0	3.2734E-01
8.9904E+00	3.270993	1969.8	3.2884E-01
9.0940E+00	3.267014	1977.5	3.3034E-01
9.1982E+00	3.263034	1985.3	3.3184E-01
9.3031E+00	3.259055	1993.0	3.3335E-01
9.4087E+00	3.255076	2000.6	3.3487E-01
9.5150E+00	3.251097	2008.3	3.3639E-01
9.6219E+00	3.247117	2015.9	3.3791E-01
9.7296E+00	3.243138	2023.5	3.3942E-01
9.8379E+00	3.239159	2031.1	3.4094E-01
9.9469E+00	3.235179	2038.7	3.4246E-01
1.0057E+01	3.231200	2046.2	3.4397E-01
1.0167E+01	3.227221	2053.8	3.4549E-01
1.0278E+01	3.223241	2061.3	3.4701E-01
1.0390E+01	3.219262	2068.8	3.4852E-01
1.0502E+01	3.215283	2076.3	3.5004E-01
1.0616E+01	3.211303	2083.8	3.5159E-01
1.0730E+01	3.207324	2091.2	3.5313E-01
1.0844E+01	3.203345	2098.7	3.5468E-01
1.0960E+01	3.199366	2106.1	3.5622E-01
1.1076E+01	3.195386	2113.5	3.5776E-01
1.1193E+01	3.191407	2120.9	3.5931E-01
1.1310E+01	3.187428	2128.3	3.6085E-01
1.1429E+01	3.183448	2135.7	3.6239E-01
1.1548E+01	3.179469	2143.1	3.6394E-01
1.1667E+01	3.175490	2150.5	3.6548E-01
1.1788E+01	3.171510	2157.9	3.6703E-01
1.1909E+01	3.167531	2165.2	3.6857E-01
1.2031E+01	3.163552	2172.6	3.7010E-01
1.2154E+01	3.159572	2179.9	3.7164E-01
1.2278E+01	3.155593	2187.3	3.7318E-01
1.2402E+01	3.151614	2194.6	3.7471E-01
1.2527E+01	3.147634	2202.0	3.7625E-01
1.2653E+01	3.143655	2209.3	3.7779E-01
1.2779E+01	3.139676	2216.6	3.7933E-01
1.2906E+01	3.135697	2224.0	3.8086E-01
1.3035E+01	3.131717	2231.3	3.8240E-01
1.3163E+01	3.127738	2238.6	3.8396E-01
1.3293E+01	3.123759	2246.0	3.8554E-01
1.3423E+01	3.119779	2253.3	3.8711E-01
1.3555E+01	3.115800	2260.6	3.8868E-01
1.3687E+01	3.111821	2268.0	3.9025E-01
1.3819E+01	3.107841	2275.3	3.9182E-01
1.3953E+01	3.103862	2282.6	3.9339E-01
1.4087E+01	3.099883	2290.0	3.9496E-01
1.4223E+01	3.095903	2297.3	3.9654E-01
1.4359E+01	3.091924	2304.7	3.9811E-01
1.4495E+01	3.087945	2312.0	3.9968E-01
1.4633E+01	3.083966	2319.4	4.0126E-01
1.4771E+01	3.079986	2326.8	4.0283E-01
1.4795E+01	3.079323	2328.0	4.0310E-01
1.4818E+01	3.078660	2329.2	4.0336E-01
1.4841E+01	3.077997	2330.4	4.0362E-01
1.4864E+01	3.077333	2331.7	4.0388E-01
1.4887E+01	3.076670	2332.9	4.0415E-01
1.4911E+01	3.076007	2334.1	4.0441E-01
1.4934E+01	3.075344	2335.4	4.0467E-01
1.4957E+01	3.074680	2336.6	4.0493E-01
1.4981E+01	3.074017	2337.8	4.0520E-01
1.4986E+01	3.073851	2338.1	4.0526E-01
1.4992E+01	3.073686	2338.4	4.0533E-01
1.4998E+01	3.073520	2338.7	4.0539E-01
1.4999E+01	3.073501	2338.8	4.0540E-01
1.4999E+01	3.073483	2338.8	4.0541E-01
1.5000E+01	3.073465	2338.8	1.1879E+00
1.5008E+01	3.073391	2339.0	1.1881E+00
1.5015E+01	3.073317	2339.3	1.1883E+00
1.5023E+01	3.073243	2339.5	1.1885E+00
1.5031E+01	3.073170	2339.7	1.1887E+00
1.5038E+01	3.073096	2339.9	1.1889E+00
1.5046E+01	3.073022	2340.1	1.1891E+00
1.5054E+01	3.072949	2340.3	1.1893E+00
1.5061E+01	3.072875	2340.5	1.1895E+00
1.5069E+01	3.072801	2340.7	1.1897E+00
1.5076E+01	3.072728	2340.9	1.1899E+00
1.5490E+01	3.068748	2352.0	1.2008E+00
1.5908E+01	3.064769	2363.0	1.2116E+00
1.6329E+01	3.060790	2373.7	1.2223E+00
1.6755E+01	3.056810	2384.4	1.2329E+00
1.7185E+01	3.052831	2395.0	1.2434E+00
1.7618E+01	3.048852	2405.7	1.2539E+00
1.8056E+01	3.044872	2416.3	1.2643E+00
1.8497E+01	3.040893	2427.1	1.2746E+00
1.8942E+01	3.036914	2437.9	1.2848E+00
1.9392E+01	3.032935	2448.8	1.2950E+00
1.9844E+01	3.028955	2459.9	1.3050E+00
2.0301E+01	3.024976	2471.2	1.3151E+00
2.0762E+01	3.020997	2482.7	1.3250E+00
2.1226E+01	3.017017	2494.4	1.3349E+00
2.1694E+01	3.013038	2506.4	1.3447E+00
2.2166E+01	3.009059	2518.7	1.3545E+00
2.2641E+01	3.005079	2531.2	1.3642E+00
2.3120E+01	3.001100	2543.8	1.3739E+00
2.3603E+01	2.997121	2556.6	1.3834E+00
2.4089E+01	2.993141	2569.4	1.3930E+00
2.4579E+01	2.989162	2582.1	1.4024E+00
2.5073E+01	2.985183	2594.7	1.4118E+00
2.5570E+01	2.981204	2607.1	1.4212E+00
2.6070E+01	2.977224	2619.3	1.4305E+00
2.6574E+01	2.973245	2631.3	1.4398E+00
2.7082E+01	2.969266	2642.9	1.4490E+00
2.7593E+01	2.965286	2654.2	1.4582E+00
2.8107E+01	2.961307	2665.2	1.4673E+00
2.8625E+01	2.957328	2676.0	1.4763E+00
2.9147E+01	2.953348	2686.5	1.4854E+00
2.9672E+01	2.949369	2696.8	1.4946E+00
3.0200E+01	2.945390	2706.9	1.5038E+00
3.0732E+01	2.941410	2716.8	1.5128E+00
3.1267E+01	2.937431	2726.6	1.5219E+00
3.1805E+01	2.933452	2736.1	1.5309E+00
3.2347E+01	2.929472	2745.6	1.5398E+00
3.2893E+01	2.925493	2754.9	1.5487E+00
3.3441E+01	2.921514	2764.1	1.5575E+00
3.3993E+01	2.917535	2773.2	1.5663E+00
3.4549E+01	2.913555	2782.3	1.5750E+00
3.5107E+01	2.909576	2791.4	1.5837E+00
3.5669E+01	2.905597	2800.6	1.5924E+00
3.6234E+01	2.901617	2809.7	1.6010E+00
3.6802E+01	2.897638	2818.9	1.6096E+00
3.7374E+01	2.893659	2828.2	1.6181E+00
3.7949E+01	2.889679	2837.6	1.6266E+00
3.8527E+01	2.885700	2847.2	1.6351E+00
3.9108E+01	2.881721	2856.9	1.6435E+00
3.9692E+01	2.877741	2866.7	1.6519E+00
4.0279E+01	2.873762	2876.7	1.6603E+00
4.0870E+01	2.869783	2886.8	1.6686E+00
4.1463E+01	2.865804	2897.0	1.6770E+00
4.2060E+01	2.861824	2907.3	1.6852E+00
4.2660E+01	2.857845	2917.8	1.6935E+00
4.3263E+01	2.853866	2928.4	1.7017E+00
4.3869E+01	2.849886	2939.1	1.7099E+00
4.4478E+01	2.845907	2949.9	1.7180E+00
4.5090E+01	2.841928	2960.8	1.7261E+00
4.5705E+01	2.837948	2971.8	1.7342E+00
4.6323E+01	2.833969	2982.8	1.7422E+00
4.6944E+01	2.829990	2994.0	1.7502E+00
4.7568E+01	2.826010	3005.3	1.7582E+00
4.8195E+01	2.822031	3016.5	1.7661E+00
4.8824E+01	2.818052	3027.8	1.7740E+00
4.9457E+01	2.814072	3039.1	1.7818E+00
5.0093E+01	2.810093	3050.4	1.7896E+00
5.0731E+01	2.806114	3061.5	1.7974E+00
5.1372E+01	2.802135	3072.6	1.8052E+00
5.2017E+01	2.798155	3083.5	1.8129E+00
5.2664E+01	2.794176	3094.3	1.8206E+00
5.3313E+01	2.790197	3104.9	1.8283E+00
5.3966E+01	2.786217	3115.3	1.8359E+00
5.4621E+01	2.782238	3125.4	1.8435E+00
5.5279E+01	2.778259	3135.3	1.8511E+00
5.5940E+01	2.774279	3145.0	1.8586E+00
5.6604E+01	2.770300	3154.3	1.8661E+00
5.7270E+01	2.766321	3163.4	1.8735E+00
5.7939E+01	2.762341	3172.2	1.8809E+00
5.8611E+01	2.758362	3180.7	1.8883E+00
5.9285E+01	2.754383	3189.0	1.8956E+00
5.9963E+01	2.750404	3197.2	1.9029E+00
6.0642E+01	2.746424	3205.2	1.9102E+00
6.1324E+01	2.742445	3213.1	1.9175E+00
6.2009E+01	2.738466	3220.9	1.9248E+00
6.2697E+01	2.734486	3228.6	1.9320E+00
6.3387E+01	2.730507	3236.4	1.9392E+00
6.4080E+01	2.726528	3244.1	1.9463E+00
6.4775E+01	2.722548	3251.8	1.9535E+00
6.5472E+01	2.718569	3259.6	1.9606E+00
6.6173E+01	2.714590	3267.5	1.9677E+00
6.6876E+01	2.710610	3275.5	1.9747E+00
6.7581E+01	2.706631	3283.6	1.9818E+00
6.8289E+01	2.702652	3291.8	1.9888E+00
6.8999E+01	2.698672	3300.2	1.9957E+00
6.9711E+01	2.694693	3308.8	2.0026E+00
7.0427E+01	2.690714	3317.5	2.0095E+00
7.1144E+01	2.686735	3326.4	2.0164E+00
7.1864E+01	2.682755	3335.4	2.0233E+00
7.2586E+01	2.678776	3344.6	2.0301E+00
7.3311E+01	2.674797	3353.9	2.0369E+00
7.4038E+01	2.670817	3363.3	2.0437E+00
7.4767E+01	2.666838	3372.9	2.0504E+00
7.5499E+01	2.662859	3382.6	2.0572E+00
7.6233E+01	2.658879	3392.4	2.0639E+00
7.6970E+01	2.654900	3402.3	2.0706E+00
7.7708E+01	2.650921	3412.4	2.0772E+00
7.8449E+01	2.646941	3422.5	2.0839E+00
7.9193E+01	2.642962	3432.8	2.0905E+00
7.9938E+01	2.638983	3443.1	2.0971E+00
8.0686E+01	2.635004	3453.5	2.1036E+00
8.1436E+01	2.631024	3464.1	2.1100E+00
8.2188E+01	2.627045	3474.7	2.1165E+00
8.2942E+01	2.623066	3485.4	2.1229E+00
8.3699E+01	2.619086	3496.2	2.1293E+00
8.4457E+01	2.615107	3507.1	2.1357E+00
8.5218E+01	2.611128	3518.0	2.1421E+00
8.5981E+01	2.607148	3528.9	2.1484E+00
8.6746E+01	2.603169	3539.9	2.1547E+00
8.7513E+01	2.599190	3550.9	2.1610E+00
8.8282E+01	2.595210	3561.9	2.1673E+00
8.9054E+01	2.591231	3572.9	2.1736E+00
8.9827E+01	2.587252	3583.9	2.1798E+00
9.0602E+01	2.583272	3594.9	2.1861E+00
9.1380E+01	2.579293	3605.8	2.1923E+00
9.2160E+01	2.575314	3616.7	2.1985E+00
9.2941E+01	2.571335	3627.6	2.2046E+00
9.3725E+01	2.567355	3638.3	2.2108E+00
9.4510E+01	2.563376	3649.1	2.2169E+00
9.5298E+01	2.559397	3659.7	2.2230E+00
9.6087E+01	2.555417	3670.2	2.2291E+00
9.6879E+01	2.551438	3680.7	2.2351E+00
9.7672E+01	2.547459	3691.0	2.2412E+00
9.8467E+01	2.543479	3701.3	2.2472E+00
9.9265E+01	2.539500	3711.4	2.2532E+00
1.0006E+02	2.535521	3721.4	2.2592E+00
1.0086E+02	2.531541	3731.2	2.2652E+00
1.0167E+02	2.527562	3740.9	2.2712E+00
1.0247E+02	2.523583	3750.5	2.2771E+00
1.0328E+02	2.519604	3759.9	2.2830E+00
1.0409E+02	2.515624	3769.3	2.2889E+00
1.0490E+02	2.511645	3778.4	2.2948E+00
1.0571E+02	2.507666	3787.5	2.3006E+00
1.0652E+02	2.503686	3796.4	2.3065E+00
1.0734E+02	2.499707	3805.3	2.3123E+00
1.0816E+02	2.495728	3814.0	2.3181E+00
1.0898E+02	2.491748	3822.5	2.3238E+00
1.0980E+02	2.487769	3831.0	2.3297E+00
1.1062E+02	2.483790	3839.3	2.3356E+00
1.1145E+02	2.479810	3847.5	2.3415E+00
1.1227E+02	2.475831	3855.6	2.3473E+00
1.1310E+02	2.471852	3863.6	2.3532E+00
1.1393E+02	2.467872	3871.5	2.3590E+00
1.1476E+02	2.463893	3879.3	2.3648E+00
1.1560E+02	2.459914	3886.9	2.3706E+00
1.1643E+02	2.455935	3894.5	2.3764E+00
1.1727E+02	2.451955	3901.9	2.3821E+00
1.1811E+02	2.447976	3909.2	2.3879E+00
1.1895E+02	2.443997	3916.5	2.3936E+00
1.1979E+02	2.440017	3923.6	2.3993E+00
1.2064E+02	2.436038	3930.6	2.4051E+00
1.2148E+02	2.432059	3937.6	2.4107E+00
1.2233E+02	2.428079	3944.4	2.4164E+00
1.2318E+02	2.424100	3951.1	2.4221E+00
1.2403E+02	2.420121	3957.8	2.4277E+00
1.2488E+02	2.416141	3964.3	2.4333E+00
1.2573E+02	2.412162	3970.8	2.4389E+00
1.2659E+02	2.408183	3977.3	2.4445E+00
1.2745E+02	2.404204	3983.6	2.4500E+00
1.2830E+02	2.400224	3989.9	2.4556E+00
1.2916E+02	2.396245	3996.1	2.4611E+00
1.3003E+02	2.392266	4002.3	2.4666E+00
1.3089E+02	2.388286	4008.4	2.4721E+00
1.3175E+02	2.384307	4014.5	2.4776E+00
1.3262E+02	2.380328	4020.6	2.4831E+00
1.3349E+02	2.376348	4026.6	2.4886E+00
1.3436E+02	2.372369	4032.5	2.4940E+00
1.3523E+02	2.368390	4038.5	2.4994E+00
1.3610E+02	2.364410	4044.4	2.5049E+00
1.3697E+02	2.360431	4050.3	2.5103E+00
1.3785E+02	2.356452	4056.1	2.5157E+00
1.3872E+02	2.352472	4062.0	2.5210E+00
1.3960E+02	2.348493	4067.9	2.5264E+00
1.4048E+02	2.344514	4073.7	2.5318E+00
1.4136E+02	2.340535	4079.5	2.5371E+00
1.4224E+02	2.336555	4085.4	2.5424E+00
1.4313E+02	2.332576	4091.2	2.5477E+00
1.4401E+02	2.328597	4097.0	2.5530E+00
1.4490E+02	2.324617	4102.9	2.5583E+00
1.4579E+02	2.320638	4108.7	2.5636E+00
1.4668E+02	2.316659	4114.6	2.5688E+00
1.4757E+02	2.312679	4120.5	2.5741E+00
1.4846E+02	2.308700	4126.4	2.5793E+00
1.4935E+02	2.304721	4132.3	2.5845E+00
1.5025E+02	2.300741	4138.3	2.5897E+00
1.5114E+02	2.296762	4144.3	2.5948E+00
1.5204E+02	2.292783	4150.3	2.6000E+00
1.5294E+02	2.288804	4156.3	2.6051E+00
1.5384E+02	2.284824	4162.4	2.6102E+00
1.5474E+02	2.280845	4168.5	2.6153E+00
1.5564E+02	2.276866	4174.6	2.6204E+00
1.5654E+02	2.272886	4180.8	2.6254E+00
1.5745E+02	2.268907	4187.0	2.6305E+00
1.5835E+02	2.264928	4193.2	2.6355E+00
1.5926E+02	2.260948	4199.5	2.6406E+00
1.6017E+02	2.256969	4205.8	2.6456E+00
1.6108E+02	2.252990	4212.2	2.6506E+00
1.6199E+02	2.249010	4218.7	2.6556E+00
1.6290E+02	2.245031	4225.1	2.6606E+00
1.6381E+02	2.241052	4231.7	2.6655E+00
1.6472E+02	2.237072	4238.3	2.6705E+00
1.6564E+02	2.233093	4244.9	2.6754E+00
1.6655E+02	2.229114	4251.6	2.6804E+00
1.6747E+02	2.225135	4258.3	2.6853E+00
1.6839E+02	2.221155	4265.1	2.6902E+00
1.6931E+02	2.217176	4272.0	2.6951E+00
1.7023E+02	2.213197	4279.0	2.7000E+00
1.7115E+02	2.209217	4285.9	2.7048E+00
1.7207E+02	2.205238	4293.0	2.7097E+00
1.7300E+02	2.201259	4300.1	2.7145E+00
1.7392E+02	2.197279	4307.3	2.7194E+00
1.7485E+02	2.193300	4314.6	2.7242E+00
1.7577E+02	2.189321	4321.9	2.7290E+00
1.7670E+02	2.185341	4329.3	2.7338E+00
1.7763E+02	2.181362	4336.8	2.7386E+00
1.7856E+02	2.177383	4344.3	2.7434E+00
1.7949E+02	2.173404	4351.9	2.7482E+00
1.8042E+02	2.169424	4359.6	2.7530E+00
1.8135E+02	2.165445	4367.3	2.7578E+00
1.8229E+02	2.161466	4375.0	2.7625E+00
1.8322E+02	2.157486	4382.8	2.7673E+00
1.8416E+02	2.153507	4390.6	2.7720E+00
1.8509E+02	2.149528	4398.4	2.7767E+00
1.8603E+02	2.145548	4406.2	2.7814E+00
1.8697E+02	2.141569	4414.1	2.7861E+00
1.8791E+02	2.137590	4421.9	2.7908E+00
1.8885E+02	2.133610	4429.8	2.7955E+00
1.8979E+02	2.129631	4437.6	2.8001E+00
1.9073E+02	2.125652	4445.4	2.8048E+00
1.9168E+02	2.121672	4453.2	2.8094E+00
1.9262E+02	2.117693	4461.0	2.8141E+00
1.9356E+02	2.113714	4468.8	2.8187E+00
1.9451E+02	2.109735	4476.5	2.8233E+00
1.9545E+02	2.105755	4484.2	2.8279E+00
1.9640E+02	2.101776	4491.8	2.8325E+00
1.9735E+02	2.097797	4499.4	2.8371E+00
1.9830E+02	2.093817	4506.9	2.8416E+00
1.9925E+02	2.089838	4514.4	2.8462E+00
2.0020E+02	2.085859	4521.8	2.8507E+00
2.0115E+02	2.081879	4529.2	2.8553E+00
2.0210E+02	2.077900	4536.4	2.8598E+00
2.0305E+02	2.073921	4543.6	2.8643E+00
2.0401E+02	2.069941	4550.8	2.8687E+00
2.0496E+02	2.065962	4557.8	2.8732E+00
